* Measurement data measured by REW V5.20.13
* Source: EXCL: Microphone (USB Sound Device        ), MICROPHONE (Master Volume), L, volume: 0.250
* Format: 256k Log Swept Sine, 1 sweep at -6.0 dBFS with no timing reference
* Dated: Oct 10, 2023 7:16:47 PM
* REW Settings:
*  C-weighting compensation: Off
*  Target level: 75.0 dB
* Note: ; 
* Measurement: Aure Foam L
* Smoothing: None
* Frequency Step: 1/48 octave
* Start Frequency: 1.000 Hz
*
* Freq(Hz)	SPL(dB)	Phase(degrees)
1.000000	66.912	-115.9363
1.015000	66.881	-117.4169
1.030000	66.847	-118.8977
1.044000	66.813	-120.2808
1.060000	66.770	-121.8633
1.075000	66.726	-123.3495
1.090000	66.679	-124.8391
1.106000	66.625	-126.4297
1.120000	66.576	-127.8081
1.138000	66.511	-129.5601
1.150000	66.467	-130.7172
1.172000	66.384	-132.8198
1.180000	66.352	-133.5794
1.206000	66.246	-136.0351
1.220000	66.186	-137.3521
1.241000	66.092	-139.3250
1.250000	66.049	-140.1709
1.265000	65.977	-141.5828
1.280000	65.901	-142.9994
1.315000	65.710	-146.3342
1.320000	65.681	-146.8151
1.340000	65.561	-148.7534
1.360000	65.433	-150.7186
1.380000	65.297	-152.7157
1.400000	65.153	-154.7499
1.430000	64.919	-157.8815
1.450000	64.751	-160.0302
1.475000	64.525	-162.7743
1.500000	64.275	-165.4321
1.525000	64.000	-167.9995
1.550000	63.705	-170.5148
1.575000	63.393	-173.0166
1.600000	63.067	-175.5433
1.625000	62.732	-178.1333
1.650000	62.389	179.1750
1.675000	62.044	176.3430
1.700000	61.698	173.3325
1.725000	61.357	170.1049
1.750000	61.022	166.6219
1.775000	60.698	162.8448
1.800000	60.388	158.7355
1.825000	60.096	154.2553
1.850000	59.809	149.3242
1.875000	59.494	143.8618
1.900000	59.159	137.9371
1.925000	58.812	131.6240
1.950000	58.460	124.9967
1.975000	58.112	118.1293
2.000000	57.777	111.0958
2.030000	57.401	102.5408
2.060000	57.069	93.9815
2.090000	56.795	85.5458
2.120000	56.592	77.3619
2.140000	56.504	72.1089
2.180000	56.458	62.2612
2.200000	56.509	57.7400
2.240000	56.787	49.0679
2.270000	57.134	42.7435
2.300000	57.579	36.5869
2.330000	58.101	30.6109
2.360000	58.681	24.8278
2.400000	59.510	17.4388
2.430000	60.147	12.1548
2.470000	60.980	5.4771
2.500000	61.566	0.7606
2.540000	62.258	-5.1151
2.580000	62.819	-10.4745
2.620000	63.324	-15.1847
2.650000	63.683	-18.3246
2.690000	64.136	-22.0676
2.720000	64.456	-24.5972
2.760000	64.860	-27.6801
2.800000	65.237	-30.5237
2.850000	65.674	-33.8945
2.900000	66.074	-37.2440
2.950000	66.440	-40.7219
3.000000	66.758	-44.0526
3.040000	66.980	-46.5634
3.070000	67.130	-48.3648
3.110000	67.309	-50.6675
3.150000	67.469	-52.8680
3.200000	67.645	-55.4934
3.250000	67.802	-58.0018
3.300000	67.944	-60.4170
3.350000	68.063	-62.7286
3.400000	68.151	-64.9160
3.450000	68.214	-66.9753
3.500000	68.257	-68.9028
3.550000	68.286	-70.6949
3.600000	68.304	-72.3479
3.650000	68.318	-73.8580
3.700000	68.324	-75.2194
3.750000	68.309	-76.4298
3.820000	68.264	-77.8845
3.870000	68.224	-78.7629
3.950000	68.162	-79.9113
4.000000	68.136	-80.4805
4.060000	68.122	-81.0028
4.120000	68.111	-81.2648
4.180000	68.103	-81.3181
4.250000	68.107	-81.2128
4.310000	68.130	-81.0616
4.370000	68.176	-80.9302
4.440000	68.268	-80.8204
4.500000	68.377	-80.6324
4.550000	68.485	-80.4413
4.620000	68.655	-80.1905
4.680000	68.811	-80.0549
4.750000	68.997	-80.0727
4.820000	69.193	-80.3068
4.870000	69.345	-80.5611
4.940000	69.569	-81.0288
5.000000	69.763	-81.5261
5.080000	70.008	-82.3151
5.150000	70.200	-83.1174
5.220000	70.381	-84.0743
5.300000	70.577	-85.3251
5.380000	70.756	-86.6736
5.450000	70.894	-87.8759
5.520000	71.011	-89.0591
5.600000	71.120	-90.4739
5.700000	71.225	-92.2972
5.800000	71.300	-94.0693
5.900000	71.350	-95.6889
6.000000	71.365	-97.2209
6.080000	71.358	-98.3730
6.150000	71.346	-99.3044
6.220000	71.333	-100.1451
6.300000	71.315	-100.9824
6.400000	71.278	-101.8699
6.500000	71.241	-102.6177
6.600000	71.219	-103.2649
6.700000	71.212	-103.7677
6.800000	71.215	-104.1450
6.900000	71.232	-104.4935
7.000000	71.266	-104.8926
7.100000	71.321	-105.2816
7.200000	71.389	-105.6881
7.300000	71.461	-106.1700
7.400000	71.535	-106.7655
7.500000	71.617	-107.4468
7.620000	71.713	-108.3521
7.750000	71.798	-109.4218
7.880000	71.870	-110.6174
8.000000	71.921	-111.7550
8.120000	71.954	-112.8558
8.250000	71.969	-114.0524
8.380000	71.970	-115.1898
8.500000	71.963	-116.1311
8.620000	71.945	-116.9905
8.750000	71.923	-117.8309
8.850000	71.911	-118.4066
9.000000	71.895	-119.1448
9.120000	71.890	-119.6813
9.250000	71.896	-120.2398
9.380000	71.913	-120.7545
9.500000	71.934	-121.2401
9.620000	71.964	-121.7625
9.750000	72.004	-122.3496
9.880000	72.036	-122.9674
10.000000	72.051	-123.5762
10.150000	72.057	-124.3751
10.300000	72.051	-125.1772
10.440000	72.034	-125.9354
10.600000	72.007	-126.7849
10.750000	71.978	-127.5385
10.900000	71.947	-128.2601
11.060000	71.914	-128.9871
11.200000	71.886	-129.5844
11.380000	71.853	-130.3251
11.500000	71.833	-130.8040
11.720000	71.801	-131.6637
11.800000	71.790	-131.9770
12.060000	71.756	-132.9883
12.200000	71.735	-133.5284
12.410000	71.705	-134.3295
12.500000	71.699	-134.6646
12.650000	71.698	-135.2127
12.800000	71.701	-135.7498
13.150000	71.711	-136.9598
13.200000	71.713	-137.1320
13.400000	71.722	-137.8185
13.600000	71.731	-138.5135
13.800000	71.739	-139.2239
14.000000	71.744	-139.9373
14.300000	71.743	-141.0010
14.500000	71.738	-141.6813
14.750000	71.730	-142.4871
15.000000	71.723	-143.2415
15.250000	71.722	-143.9638
15.500000	71.726	-144.6868
15.750000	71.734	-145.4271
16.000000	71.744	-146.2031
16.250000	71.756	-146.9968
16.500000	71.765	-147.7933
16.750000	71.769	-148.5659
17.000000	71.771	-149.3000
17.250000	71.773	-149.9989
17.500000	71.778	-150.6702
17.750000	71.786	-151.3385
18.000000	71.797	-152.0115
18.250000	71.807	-152.6977
18.500000	71.816	-153.3890
18.750000	71.822	-154.0761
19.000000	71.826	-154.7508
19.250000	71.828	-155.4072
19.500000	71.831	-156.0497
19.750000	71.834	-156.6813
20.000000	71.838	-157.3090
20.299999	71.842	-158.0564
20.600000	71.847	-158.7950
20.900000	71.850	-159.5209
21.200001	71.854	-160.2345
21.400000	71.856	-160.7081
21.799999	71.861	-161.6594
22.000000	71.863	-162.1384
22.400000	71.863	-163.0969
22.700001	71.860	-163.8019
23.000000	71.855	-164.4850
23.299999	71.852	-165.1500
23.600000	71.851	-165.8085
24.000000	71.851	-166.6948
24.299999	71.851	-167.3704
24.700001	71.846	-168.2728
25.000000	71.841	-168.9359
25.400000	71.833	-169.7919
25.799999	71.828	-170.6254
26.200001	71.824	-171.4543
26.500000	71.821	-172.0768
26.900000	71.815	-172.9022
27.200001	71.809	-173.5121
27.600000	71.802	-174.3109
28.000000	71.793	-175.0974
28.500000	71.781	-176.0657
29.000000	71.767	-177.0100
29.500000	71.754	-177.9323
30.000000	71.741	-178.8501
30.400000	71.728	-179.5846
30.700001	71.717	179.8708
31.100000	71.700	179.1633
31.500000	71.684	178.4764
32.000000	71.666	177.6284
32.500000	71.648	176.7750
33.000000	71.627	175.9269
33.500000	71.604	175.1030
34.000000	71.582	174.3025
34.500000	71.561	173.5110
35.000000	71.540	172.7259
35.500000	71.516	171.9547
36.000000	71.492	171.2019
36.500000	71.467	170.4680
37.000000	71.442	169.7536
37.500000	71.417	169.0549
38.200001	71.382	168.0882
38.700001	71.355	167.4089
39.500000	71.311	166.3647
40.000000	71.284	165.7280
40.599998	71.254	164.9658
41.200001	71.221	164.2200
41.799999	71.188	163.5016
42.500000	71.150	162.6831
43.099998	71.118	161.9939
43.700001	71.085	161.3224
44.400002	71.046	160.5521
45.000000	71.012	159.9010
45.500000	70.982	159.3732
46.200001	70.941	158.6552
46.799999	70.906	158.0507
47.500000	70.864	157.3615
48.200001	70.822	156.6906
48.700001	70.792	156.2209
49.400002	70.749	155.5813
50.000000	70.714	155.0459
50.799999	70.667	154.3391
51.500000	70.625	153.7372
52.200001	70.583	153.1548
53.000000	70.534	152.5042
53.799999	70.486	151.8721
54.500000	70.444	151.3297
55.200001	70.401	150.7985
56.000000	70.352	150.2100
57.000000	70.292	149.4833
58.000000	70.230	148.7804
59.000000	70.168	148.1038
60.000000	70.107	147.4500
60.799999	70.060	146.9412
61.500000	70.018	146.4972
62.200001	69.976	146.0548
63.000000	69.926	145.5694
64.000000	69.864	144.9880
65.000000	69.802	144.3998
66.000000	69.738	143.8445
67.000000	69.678	143.3019
68.000000	69.616	142.7670
69.000000	69.555	142.2526
70.000000	69.493	141.7361
71.000000	69.429	141.2524
72.000000	69.371	140.7910
73.000000	69.312	140.2999
74.000000	69.250	139.8434
75.000000	69.193	139.3931
76.199997	69.121	138.8704
77.500000	69.048	138.3175
78.800003	68.972	137.7803
80.000000	68.903	137.2946
81.199997	68.835	136.8262
82.500000	68.763	136.3214
83.800003	68.692	135.8339
85.000000	68.627	135.3989
86.199997	68.571	134.9510
87.500000	68.490	134.4405
88.500000	68.437	134.1899
90.000000	68.368	133.6674
91.199997	68.305	133.3183
92.500000	68.241	132.8884
93.800003	68.173	132.5222
95.000000	68.116	132.1456
96.199997	68.053	131.8049
97.500000	67.993	131.4264
98.800003	67.930	131.0571
100.000000	67.874	130.7253
101.500000	67.803	130.3243
103.000000	67.734	129.9523
104.400002	67.673	129.5940
106.000000	67.600	129.2023
107.500000	67.536	128.8401
109.000000	67.473	128.4928
110.599998	67.407	128.1049
112.000000	67.348	127.7972
113.800003	67.274	127.3971
115.000000	67.228	127.1406
117.199997	67.139	126.6569
118.000000	67.109	126.5011
120.599998	67.012	125.9739
122.000000	66.962	125.6857
124.099998	66.881	125.3008
125.000000	66.851	125.1326
126.500000	66.803	124.8582
128.000000	66.757	124.5771
131.500000	66.653	123.9617
132.000000	66.639	123.8766
134.000000	66.583	123.5393
136.000000	66.523	123.1986
138.000000	66.466	122.8516
140.000000	66.413	122.5525
143.000000	66.336	122.0704
145.000000	66.285	121.8159
147.500000	66.224	121.4260
150.000000	66.166	121.0659
152.500000	66.109	120.6958
155.000000	66.052	120.3668
157.500000	65.998	120.0037
160.000000	65.942	119.6801
162.500000	65.875	119.3534
165.000000	65.812	119.0662
167.500000	65.747	118.7473
170.000000	65.689	118.4266
172.500000	65.629	118.1472
175.000000	65.569	117.8397
177.500000	65.514	117.5620
180.000000	65.459	117.2261
182.500000	65.411	116.9450
185.000000	65.361	116.6757
187.500000	65.316	116.4089
190.000000	65.266	116.1597
192.500000	65.223	115.8699
195.000000	65.171	115.6115
197.500000	65.132	115.3754
200.000000	65.089	115.1260
203.000000	65.047	114.8564
206.000000	65.009	114.5441
209.000000	64.974	114.2474
212.000000	64.932	113.9451
214.000000	64.912	113.7820
218.000000	64.863	113.3861
220.000000	64.842	113.2144
224.000000	64.802	112.8721
227.000000	64.773	112.6049
230.000000	64.744	112.3032
233.000000	64.719	112.0676
236.000000	64.694	111.7980
240.000000	64.650	111.4040
243.000000	64.635	111.1390
247.000000	64.610	110.8414
250.000000	64.585	110.6127
254.000000	64.567	110.2882
258.000000	64.541	109.9734
262.000000	64.522	109.6657
265.000000	64.510	109.4021
269.000000	64.489	109.0795
272.000000	64.474	108.8224
276.000000	64.462	108.5551
280.000000	64.444	108.2585
285.000000	64.434	107.9161
290.000000	64.422	107.5007
295.000000	64.415	107.1743
300.000000	64.401	106.7714
304.000000	64.393	106.5114
307.000000	64.396	106.2521
311.000000	64.395	106.0484
315.000000	64.384	105.6989
320.000000	64.403	105.5034
325.000000	64.392	105.0786
330.000000	64.388	104.6771
335.000000	64.382	104.4193
340.000000	64.390	104.1094
345.000000	64.409	103.8759
350.000000	64.425	103.6102
355.000000	64.436	103.2421
360.000000	64.450	102.8377
365.000000	64.479	102.4854
370.000000	64.494	102.1842
375.000000	64.527	101.8101
382.000000	64.553	101.5021
387.000000	64.567	101.2201
395.000000	64.584	100.8247
400.000000	64.610	100.5391
406.000000	64.642	100.2783
412.000000	64.662	99.8889
418.000000	64.689	99.5763
425.000000	64.722	99.2303
431.000000	64.749	98.9946
437.000000	64.780	98.6277
444.000000	64.807	98.3156
450.000000	64.854	98.0038
455.000000	64.874	97.7822
462.000000	64.918	97.4263
468.000000	64.950	97.1419
475.000000	64.999	96.8274
482.000000	65.046	96.4609
487.000000	65.071	96.2597
494.000000	65.106	95.9372
500.000000	65.157	95.6894
508.000000	65.209	95.2377
515.000000	65.251	94.9114
522.000000	65.292	94.5970
530.000000	65.351	94.2446
538.000000	65.397	93.8889
545.000000	65.453	93.5756
552.000000	65.494	93.2305
560.000000	65.547	92.9333
570.000000	65.609	92.4558
580.000000	65.676	91.9963
590.000000	65.727	91.5606
600.000000	65.786	91.2042
608.000000	65.818	90.8014
615.000000	65.837	90.4813
622.000000	65.818	90.5629
630.000000	65.931	90.8707
640.000000	66.075	90.3762
650.000000	66.154	89.8586
660.000000	66.213	89.4265
670.000000	66.260	88.9234
680.000000	66.312	88.6848
690.000000	66.397	88.2514
700.000000	66.459	88.0306
710.000000	66.510	87.7192
720.000000	66.574	87.5433
730.000000	66.647	87.2841
740.000000	66.706	87.0763
750.000000	66.762	86.8348
762.000000	66.840	86.5438
775.000000	66.929	86.2645
788.000000	66.979	86.0411
800.000000	67.073	85.8297
812.000000	67.139	85.5607
825.000000	67.226	85.3530
838.000000	67.319	85.2056
850.000000	67.403	85.1418
862.000000	67.467	84.8352
875.000000	67.587	84.7572
885.000000	67.625	84.5831
900.000000	67.764	84.3868
912.000000	67.847	84.0662
925.000000	67.946	83.7155
938.000000	68.062	83.6022
950.000000	68.159	83.4556
962.000000	68.258	83.2068
975.000000	68.346	82.8213
988.000000	68.471	82.6115
1000.000000	68.556	82.3691
1015.000000	68.691	81.7853
1030.000000	68.866	81.5334
1044.000000	68.977	81.0566
1060.000000	69.146	80.5265
1075.000000	69.279	79.9461
1090.000000	69.407	79.4989
1106.000000	69.540	78.5916
1120.000000	69.649	78.0378
1138.000000	69.811	77.3087
1150.000000	69.899	76.4639
1172.000000	70.020	75.5576
1180.000000	70.122	75.2472
1206.000000	70.268	73.7323
1220.000000	70.389	73.2484
1241.000000	70.505	72.4042
1250.000000	70.549	71.8143
1265.000000	70.606	70.8969
1280.000000	70.587	70.0449
1315.000000	70.714	68.2270
1320.000000	70.735	67.9026
1340.000000	70.802	66.8835
1360.000000	70.844	65.8407
1380.000000	70.867	64.8984
1400.000000	70.892	63.7333
1430.000000	71.033	62.7336
1450.000000	71.083	61.7742
1475.000000	71.115	60.5773
1500.000000	71.103	59.5334
1525.000000	71.141	57.9758
1550.000000	71.240	56.9421
1575.000000	71.159	55.8220
1600.000000	71.204	54.7923
1625.000000	71.355	53.6364
1650.000000	71.376	52.2770
1675.000000	71.376	51.4486
1700.000000	71.431	50.1028
1725.000000	71.536	48.8716
1750.000000	71.605	48.4476
1775.000000	71.621	47.0764
1800.000000	71.694	45.9893
1825.000000	71.835	45.0269
1850.000000	71.725	44.0112
1875.000000	71.870	42.9999
1900.000000	71.904	41.8345
1925.000000	71.833	40.8579
1950.000000	71.971	40.0426
1975.000000	71.908	38.4850
2000.000000	71.989	37.6551
2030.000000	71.960	36.6151
2060.000000	71.961	35.6389
2090.000000	72.076	34.2093
2120.000000	72.054	32.8741
2140.000000	72.150	32.8525
2180.000000	72.097	30.8405
2200.000000	72.015	29.7146
2240.000000	71.950	28.5220
2270.000000	72.029	27.8585
2300.000000	71.912	26.4752
2330.000000	72.039	25.7493
2360.000000	71.894	24.7516
2400.000000	71.787	23.6370
2430.000000	71.778	23.4908
2470.000000	71.706	21.9177
2500.000000	71.671	21.2006
2540.000000	71.572	20.3539
2580.000000	71.537	19.6567
2620.000000	71.467	18.9524
2650.000000	71.401	18.6705
2690.000000	71.346	17.9994
2720.000000	71.313	17.7515
2760.000000	71.203	17.2412
2800.000000	71.205	17.5851
2850.000000	71.115	17.6072
2900.000000	71.173	17.5471
2950.000000	71.211	17.4601
3000.000000	71.248	16.6824
3040.000000	71.271	16.8519
3070.000000	71.319	16.7200
3110.000000	71.322	16.3079
3150.000000	71.343	15.3920
3200.000000	71.377	15.0021
3250.000000	71.396	14.1655
3300.000000	71.401	13.3125
3350.000000	71.409	12.8262
3400.000000	71.377	12.3723
3450.000000	71.413	12.0599
3500.000000	71.409	11.4594
3550.000000	71.436	11.5328
3600.000000	71.449	11.4926
3650.000000	71.532	11.3167
3700.000000	71.589	11.1630
3750.000000	71.686	10.9316
3820.000000	71.840	10.4567
3870.000000	71.944	10.0837
3950.000000	72.184	8.9786
4000.000000	72.340	8.2917
4060.000000	72.519	6.9419
4120.000000	72.710	5.3380
4180.000000	72.902	3.4075
4250.000000	73.111	0.9402
4310.000000	73.230	-1.6980
4370.000000	73.320	-4.6686
4440.000000	73.374	-8.4157
4500.000000	73.314	-11.8791
4550.000000	73.268	-14.9647
4620.000000	73.094	-19.0674
4680.000000	72.893	-22.3268
4750.000000	72.552	-25.5765
4820.000000	72.150	-28.6422
4870.000000	71.853	-30.4493
4940.000000	71.368	-32.0198
5000.000000	70.943	-33.0568
5080.000000	70.354	-33.7343
5150.000000	69.825	-33.6789
5220.000000	69.297	-33.0200
5300.000000	68.742	-31.7482
5380.000000	68.248	-29.7613
5450.000000	67.874	-27.5823
5520.000000	67.567	-25.0479
5600.000000	67.343	-21.9025
5700.000000	67.262	-17.8768
5800.000000	67.446	-14.5493
5900.000000	67.828	-13.1154
6000.000000	68.177	-14.5569
6080.000000	68.221	-17.1666
6150.000000	68.031	-19.6053
6220.000000	67.657	-21.3524
6300.000000	67.140	-22.1649
6400.000000	66.561	-21.4743
6500.000000	66.068	-19.5630
6600.000000	65.689	-16.7423
6700.000000	65.424	-13.5803
6800.000000	65.262	-10.2025
6900.000000	65.202	-6.7774
7000.000000	65.225	-3.4629
7100.000000	65.322	-0.2012
7200.000000	65.494	2.7891
7300.000000	65.732	5.4890
7400.000000	66.025	7.8246
7500.000000	66.366	9.8946
7620.000000	66.831	11.7413
7750.000000	67.387	12.9288
7880.000000	67.971	12.9736
8000.000000	68.497	12.0660
8120.000000	68.811	10.1647
8250.000000	69.035	7.2618
8380.000000	69.085	3.8152
8500.000000	68.973	0.6757
8620.000000	68.731	-2.0062
8750.000000	68.378	-4.1851
8850.000000	68.071	-5.2194
9000.000000	67.616	-5.8798
9120.000000	67.302	-5.4719
9250.000000	67.088	-4.5541
9380.000000	66.972	-3.7928
9500.000000	66.969	-2.9438
9620.000000	67.079	-2.4471
9750.000000	67.323	-2.6378
9880.000000	67.655	-4.1318
10000.000000	67.972	-7.2354
10150.000000	68.288	-13.8170
10300.000000	68.115	-22.6378
10440.000000	67.351	-30.6047
10600.000000	65.914	-36.3127
10750.000000	64.373	-37.4135
10900.000000	62.967	-34.8068
11060.000000	61.800	-29.2826
11200.000000	61.129	-23.4769
11380.000000	60.754	-15.7293
11500.000000	60.780	-11.3044
11720.000000	61.032	-6.0396
11800.000000	61.174	-4.8934
12060.000000	61.338	-4.1229
12200.000000	61.273	-4.0452
12410.000000	60.942	-3.9091
12500.000000	60.751	-3.3951
12650.000000	60.358	-2.3993
12800.000000	60.003	-0.8645
13150.000000	59.247	3.9658
13200.000000	59.152	4.5448
13400.000000	58.809	7.6166
13600.000000	58.493	10.4438
13800.000000	58.192	13.8378
14000.000000	57.980	17.4534
14300.000000	57.981	24.1317
14500.000000	58.268	27.5793
14750.000000	58.945	29.3644
15000.000000	59.562	27.4551
15250.000000	59.817	23.2604
15500.000000	59.675	19.2413
15750.000000	59.464	16.0901
16000.000000	59.275	12.4349
16250.000000	59.245	6.9532
16500.000000	58.599	3.4549
16750.000000	58.062	4.2094
17000.000000	57.905	5.4355
17250.000000	58.041	5.4641
17500.000000	58.070	3.6045
17750.000000	57.762	0.2869
18000.000000	56.905	-2.3970
18250.000000	55.112	0.7086
18500.000000	55.528	15.0143
18750.000000	54.536	11.9285
19000.000000	56.693	41.3058
19250.000000	59.799	16.2654
19500.000000	59.197	1.9854
19750.000000	58.328	-4.7789
