* Measurement data measured by REW V5.20
* Source: /Users/mrs/Desktop/HBB/Ready/IEF Comp Target.txt
* Format: Comma/Tab/Space delimited data
* Dated: Sep 20, 2023 8:44:57 PM
* REW Settings:
*  C-weighting compensation: Off
*  Target level: 75.0 dB
* Note: Measurement imported from /Users/mrs/Desktop/HBB/Ready/IEF Comp Target.txt Format: Comma/Tab/Space delimited data 480 values loaded, 20 Hz to 19,753 Hz log spaced
* Measurement: IEF Comp Target
* Smoothing: 1/48 octave
* Frequency Step: 1/48 octave
* Start Frequency: 20.000 Hz
*
* Freq(Hz)	SPL(dB)	Phase(degrees)
20.000000	1.756000	0
20.299999	1.758091	0
20.600000	1.775207	0
20.900000	1.808750	0
21.200001	1.838057	0
21.400000	1.857840	0
21.799999	1.893994	0
22.000000	1.911464	0
22.400000	1.944652	0
22.700001	1.949170	0
23.000000	1.971340	0
23.299999	1.998840	0
23.600000	2.023025	0
24.000000	2.053978	0
24.299999	2.074985	0
24.700001	2.099610	0
25.000000	2.116238	0
25.400000	2.116793	0
25.799999	2.145116	0
26.200001	2.171939	0
26.500000	2.189003	0
26.900000	2.210983	0
27.200001	2.226156	0
27.600000	2.245343	0
28.000000	2.258189	0
28.500000	2.258347	0
29.000000	2.286685	0
29.500000	2.309105	0
30.000000	2.328925	0
30.400000	2.341999	0
30.700001	2.351905	0
31.100000	2.363984	0
31.500000	2.356506	0
32.000000	2.367952	0
32.500000	2.386713	0
33.000000	2.402059	0
33.500000	2.415123	0
34.000000	2.425536	0
34.500000	2.431761	0
35.000000	2.438972	0
35.500000	2.440707	0
36.000000	2.448182	0
36.500000	2.460681	0
37.000000	2.471123	0
37.500000	2.480002	0
38.200001	2.484907	0
38.700001	2.482376	0
39.500000	2.495825	0
40.000000	2.505996	0
40.599998	2.517976	0
41.200001	2.528190	0
41.799999	2.538566	0
42.500000	2.529374	0
43.099998	2.534187	0
43.700001	2.548563	0
44.400002	2.562179	0
45.000000	2.572825	0
45.500000	2.580391	0
46.200001	2.589756	0
46.799999	2.579622	0
47.500000	2.587907	0
48.200001	2.602869	0
48.700001	2.612069	0
49.400002	2.623249	0
50.000000	2.630688	0
50.799999	2.628163	0
51.500000	2.630999	0
52.200001	2.643836	0
53.000000	2.657000	0
53.799999	2.669029	0
54.500000	2.677605	0
55.200001	2.675991	0
56.000000	2.676035	0
57.000000	2.691901	0
58.000000	2.705664	0
59.000000	2.718506	0
60.000000	2.713876	0
60.799999	2.708040	0
61.500000	2.723415	0
62.200001	2.734128	0
63.000000	2.740925	0
64.000000	2.741938	0
65.000000	2.740499	0
66.000000	2.747909	0
67.000000	2.759134	0
68.000000	2.766298	0
69.000000	2.762806	0
70.000000	2.758171	0
71.000000	2.765282	0
72.000000	2.773009	0
73.000000	2.779263	0
74.000000	2.766438	0
75.000000	2.758230	0
76.199997	2.770958	0
77.500000	2.769632	0
78.800003	2.760217	0
80.000000	2.761998	0
81.199997	2.764897	0
82.500000	2.755787	0
83.800003	2.744174	0
85.000000	2.746393	0
86.199997	2.746888	0
87.500000	2.723954	0
88.500000	2.717036	0
90.000000	2.717447	0
91.199997	2.704582	0
92.500000	2.698052	0
93.800003	2.692856	0
95.000000	2.675592	0
96.199997	2.667764	0
97.500000	2.662156	0
98.800003	2.643738	0
100.000000	2.632431	0
101.500000	2.628739	0
103.000000	2.597022	0
104.400002	2.597910	0
106.000000	2.570130	0
107.500000	2.554911	0
109.000000	2.539171	0
110.599998	2.523815	0
112.000000	2.506542	0
113.800003	2.486962	0
115.000000	2.472027	0
117.199997	2.442022	0
118.000000	2.432116	0
120.599998	2.401902	0
122.000000	2.383392	0
124.099998	2.357879	0
125.000000	2.347323	0
126.500000	2.330460	0
128.000000	2.310104	0
131.500000	2.262104	0
132.000000	2.255783	0
134.000000	2.232845	0
136.000000	2.209370	0
138.000000	2.187793	0
140.000000	2.163949	0
143.000000	2.126289	0
145.000000	2.103948	0
147.500000	2.076957	0
150.000000	2.049063	0
152.500000	2.022887	0
155.000000	1.996045	0
157.500000	1.970089	0
160.000000	1.945033	0
162.500000	1.919850	0
165.000000	1.893726	0
167.500000	1.876699	0
170.000000	1.854154	0
172.500000	1.821894	0
175.000000	1.797201	0
177.500000	1.777619	0
180.000000	1.756173	0
182.500000	1.735066	0
185.000000	1.713940	0
187.500000	1.690083	0
190.000000	1.670686	0
192.500000	1.647633	0
195.000000	1.626211	0
197.500000	1.602520	0
200.000000	1.585915	0
203.000000	1.562023	0
206.000000	1.534045	0
209.000000	1.506041	0
212.000000	1.485055	0
214.000000	1.470488	0
218.000000	1.432364	0
220.000000	1.418834	0
224.000000	1.390141	0
227.000000	1.366365	0
230.000000	1.339844	0
233.000000	1.320921	0
236.000000	1.300104	0
240.000000	1.270963	0
243.000000	1.247028	0
247.000000	1.215099	0
250.000000	1.193059	0
254.000000	1.166039	0
258.000000	1.140833	0
262.000000	1.112616	0
265.000000	1.093794	0
269.000000	1.066109	0
272.000000	1.049215	0
276.000000	1.023722	0
280.000000	1.002495	0
285.000000	0.973061	0
290.000000	0.946136	0
295.000000	0.921735	0
300.000000	0.895165	0
304.000000	0.879770	0
307.000000	0.864622	0
311.000000	0.848997	0
315.000000	0.834138	0
320.000000	0.817033	0
325.000000	0.795375	0
330.000000	0.780388	0
335.000000	0.761779	0
340.000000	0.748532	0
345.000000	0.734356	0
350.000000	0.720427	0
355.000000	0.703766	0
360.000000	0.692629	0
365.000000	0.681290	0
370.000000	0.669761	0
375.000000	0.652127	0
382.000000	0.638421	0
387.000000	0.626255	0
395.000000	0.609115	0
400.000000	0.598903	0
406.000000	0.582052	0
412.000000	0.568030	0
418.000000	0.556029	0
425.000000	0.541079	0
431.000000	0.529024	0
437.000000	0.516010	0
444.000000	0.501209	0
450.000000	0.488890	0
455.000000	0.476831	0
462.000000	0.458325	0
468.000000	0.449347	0
475.000000	0.435342	0
482.000000	0.421352	0
487.000000	0.410494	0
494.000000	0.406008	0
500.000000	0.398849	0
508.000000	0.369113	0
515.000000	0.361733	0
522.000000	0.354146	0
530.000000	0.351961	0
538.000000	0.321361	0
545.000000	0.317903	0
552.000000	0.310502	0
560.000000	0.300671	0
570.000000	0.285054	0
580.000000	0.272907	0
590.000000	0.263885	0
600.000000	0.258481	0
608.000000	0.229944	0
615.000000	0.225868	0
622.000000	0.220124	0
630.000000	0.217127	0
640.000000	0.209040	0
650.000000	0.181978	0
660.000000	0.175385	0
670.000000	0.170764	0
680.000000	0.163225	0
690.000000	0.139654	0
700.000000	0.140211	0
710.000000	0.119839	0
720.000000	0.118115	0
730.000000	0.105895	0
740.000000	0.090888	0
750.000000	0.096645	0
762.000000	0.067071	0
775.000000	0.066828	0
788.000000	0.042903	0
800.000000	0.044339	0
812.000000	0.026134	0
825.000000	0.015169	0
838.000000	0.004949	0
850.000000	-0.016911	0
862.000000	-0.014971	0
875.000000	-0.031344	0
885.000000	-0.041726	0
900.000000	-0.045575	0
912.000000	-0.051384	0
925.000000	-0.089792	0
938.000000	-0.093114	0
950.000000	-0.096396	0
962.000000	-0.104624	0
975.000000	-0.113388	0
988.000000	-0.121359	0
1000.000000	-0.115242	0
1015.000000	-0.049403	0
1030.000000	-0.001004	0
1044.000000	0.052548	0
1060.000000	0.127047	0
1075.000000	0.186688	0
1090.000000	0.270417	0
1106.000000	0.369708	0
1120.000000	0.460480	0
1138.000000	0.577414	0
1150.000000	0.654809	0
1172.000000	0.800841	0
1180.000000	0.851840	0
1206.000000	1.023369	0
1220.000000	1.111938	0
1241.000000	1.242506	0
1250.000000	1.296837	0
1265.000000	1.385814	0
1280.000000	1.470672	0
1315.000000	1.646437	0
1320.000000	1.669199	0
1340.000000	1.754343	0
1360.000000	1.842065	0
1380.000000	1.921017	0
1400.000000	1.999029	0
1430.000000	2.135859	0
1450.000000	2.197053	0
1475.000000	2.291114	0
1500.000000	2.390722	0
1525.000000	2.497543	0
1550.000000	2.603334	0
1575.000000	2.706926	0
1600.000000	2.815603	0
1625.000000	2.927697	0
1650.000000	3.046270	0
1675.000000	3.161968	0
1700.000000	3.283460	0
1725.000000	3.409513	0
1750.000000	3.536379	0
1775.000000	3.639032	0
1800.000000	3.752268	0
1825.000000	3.904739	0
1850.000000	4.053445	0
1875.000000	4.194546	0
1900.000000	4.335398	0
1925.000000	4.476645	0
1950.000000	4.619259	0
1975.000000	4.761468	0
2000.000000	4.903396	0
2030.000000	5.069320	0
2060.000000	5.226460	0
2090.000000	5.382483	0
2120.000000	5.539881	0
2140.000000	5.647575	0
2180.000000	5.887935	0
2200.000000	5.970698	0
2240.000000	6.148638	0
2270.000000	6.303525	0
2300.000000	6.452634	0
2330.000000	6.600536	0
2360.000000	6.749269	0
2400.000000	6.921576	0
2430.000000	7.042363	0
2470.000000	7.192563	0
2500.000000	7.299224	0
2540.000000	7.432688	0
2580.000000	7.566641	0
2620.000000	7.692515	0
2650.000000	7.767253	0
2690.000000	7.858708	0
2720.000000	7.918993	0
2760.000000	7.990894	0
2800.000000	8.053791	0
2850.000000	8.115753	0
2900.000000	8.158280	0
2950.000000	8.187716	0
3000.000000	8.195978	0
3040.000000	8.184235	0
3070.000000	8.178432	0
3110.000000	8.157164	0
3150.000000	8.133581	0
3200.000000	8.098783	0
3250.000000	8.041404	0
3300.000000	7.988832	0
3350.000000	7.939309	0
3400.000000	7.906320	0
3450.000000	7.832128	0
3500.000000	7.770319	0
3550.000000	7.729624	0
3600.000000	7.659071	0
3650.000000	7.579342	0
3700.000000	7.494409	0
3750.000000	7.409359	0
3820.000000	7.287541	0
3870.000000	7.197313	0
3950.000000	7.044511	0
4000.000000	6.948294	0
4060.000000	6.828548	0
4120.000000	6.705411	0
4180.000000	6.576592	0
4250.000000	6.425282	0
4310.000000	6.288472	0
4370.000000	6.149613	0
4440.000000	5.997208	0
4500.000000	5.870572	0
4550.000000	5.772820	0
4620.000000	5.652428	0
4680.000000	5.559332	0
4750.000000	5.460401	0
4820.000000	5.370429	0
4870.000000	5.313348	0
4940.000000	5.242349	0
5000.000000	5.186384	0
5080.000000	5.121506	0
5150.000000	5.074237	0
5220.000000	5.013892	0
5300.000000	4.924902	0
5380.000000	4.880355	0
5450.000000	4.871744	0
5520.000000	4.822296	0
5600.000000	4.733163	0
5700.000000	4.641153	0
5800.000000	4.571601	0
5900.000000	4.462109	0
6000.000000	4.359405	0
6080.000000	4.280397	0
6150.000000	4.213618	0
6220.000000	4.149444	0
6300.000000	4.075288	0
6400.000000	3.975514	0
6500.000000	3.864472	0
6600.000000	3.734427	0
6700.000000	3.579574	0
6800.000000	3.403636	0
6900.000000	3.211706	0
7000.000000	3.011847	0
7100.000000	2.810441	0
7200.000000	2.608656	0
7300.000000	2.415897	0
7400.000000	2.243601	0
7500.000000	2.086565	0
7620.000000	1.924605	0
7750.000000	1.790453	0
7880.000000	1.694361	0
8000.000000	1.638321	0
8120.000000	1.613207	0
8250.000000	1.617264	0
8380.000000	1.659387	0
8500.000000	1.733718	0
8620.000000	1.836086	0
8750.000000	1.984293	0
8850.000000	2.127872	0
9000.000000	2.380808	0
9120.000000	2.608789	0
9250.000000	2.880628	0
9380.000000	3.150985	0
9500.000000	3.380803	0
9620.000000	3.562168	0
9750.000000	3.680135	0
9880.000000	3.720254	0
10000.000000	3.694257	0
10150.000000	3.617350	0
10300.000000	3.533467	0
10440.000000	3.439188	0
10600.000000	3.288350	0
10750.000000	3.089622	0
10900.000000	2.709549	0
11060.000000	2.186718	0
11200.000000	1.660710	0
11380.000000	0.990864	0
11500.000000	0.617546	0
11720.000000	0.023202	0
11800.000000	-0.152676	0
12060.000000	-0.627967	0
12200.000000	-0.817103	0
12410.000000	-1.005635	0
12500.000000	-1.064387	0
12650.000000	-1.139203	0
12800.000000	-1.198433	0
13150.000000	-1.326772	0
13200.000000	-1.347754	0
13400.000000	-1.453450	0
13600.000000	-1.597224	0
13800.000000	-1.796494	0
14000.000000	-2.066428	0
14300.000000	-2.570488	0
14500.000000	-2.967243	0
14750.000000	-3.513165	0
15000.000000	-4.078491	0
15250.000000	-4.648338	0
15500.000000	-5.208065	0
15750.000000	-5.753293	0
16000.000000	-6.294486	0
16250.000000	-6.844319	0
16500.000000	-7.404199	0
16750.000000	-7.963363	0
17000.000000	-8.521154	0
17250.000000	-9.072963	0
17500.000000	-9.623235	0
17750.000000	-10.193276	0
18000.000000	-10.807091	0
18250.000000	-11.478837	0
18500.000000	-12.200197	0
18750.000000	-12.910430	0
19000.000000	-13.465681	0
19250.000000	-13.690672	0
19500.000000	-13.429779	0
19750.000000	-12.339335	0
